"sample_h - RawData"
"Wavelength nm.","T%"
200.00,-0.064
200.50,0.084
201.00,0.019
201.50,-0.021
202.00,0.097
202.50,0.194
203.00,-0.020
203.50,0.070
204.00,0.000
204.50,-0.049
205.00,-0.098
205.50,0.138
206.00,0.004
206.50,0.062
207.00,0.031
207.50,-0.011
208.00,0.063
208.50,0.014
209.00,0.011
209.50,0.024
210.00,-0.045
210.50,0.042
211.00,0.020
211.50,0.015
212.00,0.065
212.50,0.070
213.00,0.009
213.50,0.036
214.00,0.042
214.50,-0.003
215.00,0.038
215.50,0.006
216.00,0.021
216.50,0.041
217.00,0.021
217.50,0.026
218.00,0.016
218.50,0.026
219.00,0.025
219.50,0.023
220.00,0.035
220.50,0.025
221.00,0.015
221.50,0.012
222.00,0.037
222.50,0.036
223.00,0.027
223.50,0.019
224.00,0.039
224.50,0.027
225.00,0.022
225.50,0.052
226.00,0.031
226.50,0.019
227.00,0.029
227.50,0.035
228.00,0.008
228.50,0.014
229.00,0.036
229.50,0.022
230.00,0.027
230.50,0.033
231.00,0.033
231.50,0.026
232.00,0.032
232.50,0.022
233.00,0.024
233.50,0.030
234.00,0.016
234.50,0.040
235.00,0.020
235.50,0.031
236.00,0.034
236.50,0.042
237.00,0.020
237.50,0.031
238.00,0.017
238.50,0.027
239.00,0.018
239.50,0.021
240.00,0.013
240.50,0.016
241.00,0.017
241.50,0.009
242.00,0.025
242.50,0.031
243.00,0.022
243.50,0.026
244.00,0.037
244.50,0.028
245.00,0.020
245.50,0.025
246.00,0.020
246.50,0.027
247.00,0.019
247.50,0.014
248.00,0.020
248.50,0.015
249.00,0.020
249.50,0.030
250.00,0.026
250.50,0.031
251.00,0.019
251.50,0.025
252.00,0.029
252.50,0.028
253.00,0.022
253.50,0.022
254.00,0.023
254.50,0.015
255.00,0.022
255.50,0.017
256.00,0.012
256.50,0.028
257.00,0.022
257.50,0.025
258.00,0.032
258.50,0.022
259.00,0.030
259.50,0.017
260.00,0.026
260.50,0.016
261.00,0.014
261.50,0.034
262.00,0.025
262.50,0.014
263.00,0.022
263.50,0.025
264.00,0.015
264.50,0.035
265.00,0.022
265.50,0.015
266.00,0.022
266.50,0.021
267.00,0.023
267.50,0.027
268.00,0.018
268.50,0.020
269.00,0.026
269.50,0.024
270.00,0.010
270.50,0.028
271.00,0.019
271.50,0.017
272.00,0.022
272.50,0.024
273.00,0.029
273.50,0.029
274.00,0.022
274.50,0.012
275.00,0.023
275.50,0.023
276.00,0.024
276.50,0.031
277.00,0.027
277.50,0.021
278.00,0.016
278.50,0.026
279.00,0.025
279.50,0.024
280.00,0.028
280.50,0.021
281.00,0.018
281.50,0.028
282.00,0.031
282.50,0.014
283.00,0.023
283.50,0.027
284.00,0.020
284.50,0.027
285.00,0.016
285.50,0.025
286.00,0.026
286.50,0.026
287.00,0.017
287.50,0.020
288.00,0.019
288.50,0.026
289.00,0.030
289.50,0.010
290.00,0.007
290.50,0.012
291.00,0.024
291.50,0.018
292.00,0.023
292.50,0.022
293.00,0.012
293.50,0.019
294.00,0.020
294.50,0.019
295.00,0.018
295.50,0.019
296.00,0.007
296.50,0.013
297.00,0.015
297.50,0.019
298.00,0.026
298.50,0.025
299.00,0.022
299.50,0.020
300.00,0.017
300.50,0.024
301.00,0.029
301.50,0.036
302.00,0.038
302.50,0.037
303.00,0.029
303.50,0.032
304.00,0.037
304.50,0.042
305.00,0.027
305.50,0.041
306.00,0.014
306.50,0.030
307.00,0.049
307.50,0.040
308.00,0.045
308.50,0.034
309.00,0.032
309.50,0.011
310.00,0.044
310.50,0.040
311.00,0.031
311.50,0.036
312.00,0.042
312.50,0.034
313.00,0.035
313.50,0.043
314.00,0.032
314.50,0.042
315.00,0.025
315.50,0.032
316.00,0.040
316.50,0.028
317.00,0.020
317.50,0.041
318.00,0.031
318.50,0.016
319.00,0.027
319.50,0.036
320.00,0.022
320.50,0.034
321.00,0.051
321.50,0.019
322.00,0.039
322.50,0.042
323.00,0.017
323.50,0.037
324.00,0.026
324.50,0.015
325.00,0.027
325.50,0.043
326.00,0.027
326.50,0.041
327.00,0.037
327.50,0.027
328.00,0.038
328.50,0.044
329.00,0.026
329.50,0.030
330.00,0.035
330.50,0.036
331.00,0.028
331.50,0.038
332.00,0.031
332.50,0.009
333.00,0.035
333.50,0.025
334.00,0.035
334.50,0.045
335.00,0.052
335.50,0.031
336.00,0.052
336.50,0.031
337.00,0.043
337.50,0.029
338.00,0.022
338.50,0.048
339.00,0.033
339.50,0.029
340.00,0.037
340.50,0.030
341.00,0.095
341.50,-0.148
342.00,0.150
342.50,0.064
343.00,0.086
343.50,0.137
344.00,-0.007
344.50,-0.011
345.00,0.056
345.50,-0.012
346.00,0.066
346.50,-0.040
347.00,0.016
347.50,0.069
348.00,0.049
348.50,0.093
349.00,0.064
349.50,0.044
350.00,0.043
350.50,0.062
351.00,-0.020
351.50,0.071
352.00,-0.010
352.50,-0.031
353.00,0.034
353.50,0.032
354.00,0.064
354.50,0.059
355.00,0.066
355.50,0.035
356.00,0.051
356.50,-0.007
357.00,0.038
357.50,0.051
358.00,0.043
358.50,0.034
359.00,0.032
359.50,0.033
360.00,0.035
360.50,0.092
361.00,0.102
361.50,0.087
362.00,0.097
362.50,0.102
363.00,0.081
363.50,0.104
364.00,0.111
364.50,0.096
365.00,0.098
365.50,0.078
366.00,0.062
366.50,0.111
367.00,0.099
367.50,0.085
368.00,0.091
368.50,0.100
369.00,0.099
369.50,0.100
370.00,0.087
370.50,0.094
371.00,0.095
371.50,0.084
372.00,0.094
372.50,0.113
373.00,0.093
373.50,0.099
374.00,0.084
374.50,0.102
375.00,0.076
375.50,0.088
376.00,0.101
376.50,0.090
377.00,0.089
377.50,0.094
378.00,0.094
378.50,0.093
379.00,0.087
379.50,0.096
380.00,0.095
380.50,0.103
381.00,0.086
381.50,0.098
382.00,0.089
382.50,0.088
383.00,0.092
383.50,0.087
384.00,0.091
384.50,0.077
385.00,0.092
385.50,0.083
386.00,0.092
386.50,0.084
387.00,0.096
387.50,0.086
388.00,0.092
388.50,0.094
389.00,0.092
389.50,0.084
390.00,0.085
390.50,0.083
391.00,0.089
391.50,0.082
392.00,0.081
392.50,0.082
393.00,0.091
393.50,0.083
394.00,0.092
394.50,0.083
395.00,0.093
395.50,0.087
396.00,0.072
396.50,0.077
397.00,0.085
397.50,0.079
398.00,0.096
398.50,0.084
399.00,0.083
399.50,0.086
400.00,0.086
400.50,0.078
401.00,0.084
401.50,0.083
402.00,0.076
402.50,0.078
403.00,0.088
403.50,0.087
404.00,0.078
404.50,0.075
405.00,0.081
405.50,0.082
406.00,0.083
406.50,0.077
407.00,0.085
407.50,0.079
408.00,0.078
408.50,0.080
409.00,0.078
409.50,0.080
410.00,0.081
410.50,0.084
411.00,0.079
411.50,0.081
412.00,0.079
412.50,0.071
413.00,0.072
413.50,0.078
414.00,0.071
414.50,0.081
415.00,0.080
415.50,0.068
416.00,0.075
416.50,0.077
417.00,0.075
417.50,0.078
418.00,0.081
418.50,0.085
419.00,0.075
419.50,0.078
420.00,0.081
420.50,0.086
421.00,0.075
421.50,0.093
422.00,0.091
422.50,0.091
423.00,0.097
423.50,0.083
424.00,0.088
424.50,0.081
425.00,0.090
425.50,0.084
426.00,0.090
426.50,0.081
427.00,0.084
427.50,0.085
428.00,0.083
428.50,0.086
429.00,0.079
429.50,0.080
430.00,0.081
430.50,0.082
431.00,0.078
431.50,0.085
432.00,0.081
432.50,0.084
433.00,0.079
433.50,0.076
434.00,0.082
434.50,0.089
435.00,0.076
435.50,0.082
436.00,0.081
436.50,0.078
437.00,0.084
437.50,0.083
438.00,0.080
438.50,0.076
439.00,0.079
439.50,0.083
440.00,0.087
440.50,0.080
441.00,0.085
441.50,0.084
442.00,0.081
442.50,0.084
443.00,0.083
443.50,0.083
444.00,0.087
444.50,0.079
445.00,0.082
445.50,0.082
446.00,0.086
446.50,0.080
447.00,0.081
447.50,0.076
448.00,0.078
448.50,0.076
449.00,0.078
449.50,0.080
450.00,0.075
450.50,0.080
451.00,0.075
451.50,0.080
452.00,0.077
452.50,0.075
453.00,0.079
453.50,0.080
454.00,0.072
454.50,0.080
455.00,0.072
455.50,0.077
456.00,0.082
456.50,0.079
457.00,0.079
457.50,0.081
458.00,0.076
458.50,0.080
459.00,0.077
459.50,0.077
460.00,0.084
460.50,0.067
461.00,0.076
461.50,0.076
462.00,0.079
462.50,0.073
463.00,0.084
463.50,0.077
464.00,0.075
464.50,0.077
465.00,0.081
465.50,0.077
466.00,0.075
466.50,0.076
467.00,0.073
467.50,0.072
468.00,0.073
468.50,0.070
469.00,0.075
469.50,0.071
470.00,0.071
470.50,0.078
471.00,0.073
471.50,0.070
472.00,0.069
472.50,0.073
473.00,0.077
473.50,0.075
474.00,0.074
474.50,0.074
475.00,0.073
475.50,0.071
476.00,0.073
476.50,0.074
477.00,0.071
477.50,0.071
478.00,0.073
478.50,0.071
479.00,0.073
479.50,0.080
480.00,0.069
480.50,0.072
481.00,0.071
481.50,0.074
482.00,0.076
482.50,0.067
483.00,0.070
483.50,0.071
484.00,0.078
484.50,0.071
485.00,0.070
485.50,0.069
486.00,0.070
486.50,0.073
487.00,0.065
487.50,0.070
488.00,0.069
488.50,0.070
489.00,0.069
489.50,0.068
490.00,0.070
490.50,0.071
491.00,0.068
491.50,0.069
492.00,0.067
492.50,0.071
493.00,0.066
493.50,0.072
494.00,0.075
494.50,0.070
495.00,0.065
495.50,0.068
496.00,0.074
496.50,0.069
497.00,0.065
497.50,0.069
498.00,0.066
498.50,0.072
499.00,0.065
499.50,0.070
500.00,0.068
500.50,0.068
501.00,0.067
501.50,0.073
502.00,0.071
502.50,0.062
503.00,0.070
503.50,0.065
504.00,0.073
504.50,0.071
505.00,0.062
505.50,0.069
506.00,0.067
506.50,0.064
507.00,0.071
507.50,0.071
508.00,0.061
508.50,0.066
509.00,0.064
509.50,0.068
510.00,0.073
510.50,0.066
511.00,0.068
511.50,0.066
512.00,0.066
512.50,0.068
513.00,0.063
513.50,0.065
514.00,0.062
514.50,0.069
515.00,0.065
515.50,0.069
516.00,0.057
516.50,0.064
517.00,0.064
517.50,0.065
518.00,0.063
518.50,0.063
519.00,0.062
519.50,0.064
520.00,0.054
520.50,0.067
521.00,0.066
521.50,0.068
522.00,0.060
522.50,0.061
523.00,0.066
523.50,0.060
524.00,0.064
524.50,0.065
525.00,0.066
525.50,0.060
526.00,0.059
526.50,0.062
527.00,0.067
527.50,0.058
528.00,0.061
528.50,0.063
529.00,0.062
529.50,0.061
530.00,0.065
530.50,0.026
531.00,0.031
531.50,0.033
532.00,0.037
532.50,0.031
533.00,0.034
533.50,0.032
534.00,0.036
534.50,0.031
535.00,0.036
535.50,0.032
536.00,0.037
536.50,0.042
537.00,0.034
537.50,0.033
538.00,0.035
538.50,0.037
539.00,0.041
539.50,0.039
540.00,0.042
540.50,0.039
541.00,0.038
541.50,0.037
542.00,0.035
542.50,0.039
543.00,0.038
543.50,0.039
544.00,0.032
544.50,0.041
545.00,0.041
545.50,0.038
546.00,0.040
546.50,0.044
547.00,0.039
547.50,0.040
548.00,0.042
548.50,0.040
549.00,0.039
549.50,0.040
550.00,0.038
550.50,0.044
551.00,0.044
551.50,0.042
552.00,0.038
552.50,0.043
553.00,0.046
553.50,0.040
554.00,0.038
554.50,0.043
555.00,0.040
555.50,0.046
556.00,0.044
556.50,0.038
557.00,0.038
557.50,0.037
558.00,0.035
558.50,0.040
559.00,0.042
559.50,0.038
560.00,0.040
560.50,0.041
561.00,0.040
561.50,0.039
562.00,0.043
562.50,0.041
563.00,0.035
563.50,0.041
564.00,0.040
564.50,0.044
565.00,0.038
565.50,0.044
566.00,0.042
566.50,0.035
567.00,0.042
567.50,0.036
568.00,0.040
568.50,0.039
569.00,0.043
569.50,0.038
570.00,0.041
570.50,0.039
571.00,0.042
571.50,0.040
572.00,0.042
572.50,0.038
573.00,0.038
573.50,0.039
574.00,0.036
574.50,0.037
575.00,0.040
575.50,0.040
576.00,0.038
576.50,0.041
577.00,0.040
577.50,0.042
578.00,0.037
578.50,0.037
579.00,0.041
579.50,0.043
580.00,0.040
580.50,0.042
581.00,0.039
581.50,0.042
582.00,0.037
582.50,0.040
583.00,0.039
583.50,0.040
584.00,0.038
584.50,0.043
585.00,0.042
585.50,0.043
586.00,0.039
586.50,0.034
587.00,0.043
587.50,0.042
588.00,0.040
588.50,0.035
589.00,0.043
589.50,0.040
590.00,0.038
590.50,0.038
591.00,0.042
591.50,0.041
592.00,0.033
592.50,0.040
593.00,0.041
593.50,0.038
594.00,0.037
594.50,0.046
595.00,0.038
595.50,0.041
596.00,0.038
596.50,0.040
597.00,0.034
597.50,0.039
598.00,0.040
598.50,0.040
599.00,0.041
599.50,0.038
600.00,0.040
600.50,0.041
601.00,0.041
601.50,0.040
602.00,0.042
602.50,0.037
603.00,0.040
603.50,0.036
604.00,0.038
604.50,0.035
605.00,0.035
605.50,0.043
606.00,0.040
606.50,0.041
607.00,0.037
607.50,0.040
608.00,0.040
608.50,0.041
609.00,0.036
609.50,0.042
610.00,0.046
610.50,0.039
611.00,0.038
611.50,0.042
612.00,0.043
612.50,0.039
613.00,0.043
613.50,0.041
614.00,0.038
614.50,0.036
615.00,0.044
615.50,0.045
616.00,0.042
616.50,0.046
617.00,0.037
617.50,0.039
618.00,0.036
618.50,0.043
619.00,0.040
619.50,0.044
620.00,0.044
620.50,0.044
621.00,0.041
621.50,0.040
622.00,0.039
622.50,0.043
623.00,0.038
623.50,0.039
624.00,0.042
624.50,0.043
625.00,0.041
625.50,0.038
626.00,0.039
626.50,0.041
627.00,0.036
627.50,0.042
628.00,0.042
628.50,0.042
629.00,0.038
629.50,0.044
630.00,0.039
630.50,0.043
631.00,0.041
631.50,0.044
632.00,0.034
632.50,0.037
633.00,0.043
633.50,0.039
634.00,0.038
634.50,0.037
635.00,0.040
635.50,0.043
636.00,0.041
636.50,0.040
637.00,0.037
637.50,0.044
638.00,0.045
638.50,0.044
639.00,0.042
639.50,0.040
640.00,0.039
640.50,0.039
641.00,0.040
641.50,0.038
642.00,0.032
642.50,0.042
643.00,0.040
643.50,0.036
644.00,0.041
644.50,0.037
645.00,0.044
645.50,0.034
646.00,0.043
646.50,0.037
647.00,0.041
647.50,0.040
648.00,0.047
648.50,0.043
649.00,0.042
649.50,0.041
650.00,0.043
650.50,0.041
651.00,0.035
651.50,0.040
652.00,0.038
652.50,0.040
653.00,0.039
653.50,0.036
654.00,0.041
654.50,0.038
655.00,0.040
655.50,0.044
656.00,0.037
656.50,0.036
657.00,0.041
657.50,0.042
658.00,0.038
658.50,0.041
659.00,0.043
659.50,0.037
660.00,0.040
660.50,0.038
661.00,0.043
661.50,0.041
662.00,0.043
662.50,0.036
663.00,0.038
663.50,0.041
664.00,0.040
664.50,0.044
665.00,0.039
665.50,0.037
666.00,0.037
666.50,0.038
667.00,0.041
667.50,0.037
668.00,0.040
668.50,0.042
669.00,0.041
669.50,0.039
670.00,0.039
670.50,0.041
671.00,0.040
671.50,0.038
672.00,0.042
672.50,0.042
673.00,0.044
673.50,0.041
674.00,0.041
674.50,0.041
675.00,0.038
675.50,0.038
676.00,0.043
676.50,0.042
677.00,0.040
677.50,0.041
678.00,0.038
678.50,0.037
679.00,0.042
679.50,0.040
680.00,0.038
680.50,0.043
681.00,0.037
681.50,0.040
682.00,0.037
682.50,0.039
683.00,0.039
683.50,0.040
684.00,0.041
684.50,0.041
685.00,0.044
685.50,0.038
686.00,0.037
686.50,0.043
687.00,0.040
687.50,0.038
688.00,0.041
688.50,0.038
689.00,0.039
689.50,0.040
690.00,0.036
690.50,0.033
691.00,0.040
691.50,0.035
692.00,0.037
692.50,0.042
693.00,0.039
693.50,0.042
694.00,0.041
694.50,0.036
695.00,0.043
695.50,0.040
696.00,0.042
696.50,0.039
697.00,0.041
697.50,0.036
698.00,0.042
698.50,0.041
699.00,0.040
699.50,0.033
700.00,0.043
700.50,0.035
701.00,0.036
701.50,0.040
702.00,0.038
702.50,0.039
703.00,0.041
703.50,0.042
704.00,0.034
704.50,0.038
705.00,0.041
705.50,0.038
706.00,0.043
706.50,0.039
707.00,0.038
707.50,0.043
708.00,0.039
708.50,0.042
709.00,0.038
709.50,0.037
710.00,0.035
710.50,0.042
711.00,0.040
711.50,0.039
712.00,0.043
712.50,0.035
713.00,0.041
713.50,0.041
714.00,0.041
714.50,0.039
715.00,0.040
715.50,0.042
716.00,0.041
716.50,0.038
717.00,0.040
717.50,0.037
718.00,0.044
718.50,0.040
719.00,0.045
719.50,0.038
720.00,0.035
720.50,0.039
721.00,0.036
721.50,0.043
722.00,0.036
722.50,0.039
723.00,0.043
723.50,0.033
724.00,0.036
724.50,0.041
725.00,0.035
725.50,0.038
726.00,0.040
726.50,0.036
727.00,0.052
727.50,0.044
728.00,0.039
728.50,0.043
729.00,0.044
729.50,0.038
730.00,0.042
730.50,0.044
731.00,0.040
731.50,0.041
732.00,0.040
732.50,0.045
733.00,0.042
733.50,0.037
734.00,0.043
734.50,0.041
735.00,0.043
735.50,0.037
736.00,0.042
736.50,0.040
737.00,0.038
737.50,0.041
738.00,0.043
738.50,0.039
739.00,0.036
739.50,0.037
740.00,0.035
740.50,0.039
741.00,0.042
741.50,0.037
742.00,0.039
742.50,0.040
743.00,0.031
743.50,0.042
744.00,0.040
744.50,0.035
745.00,0.042
745.50,0.043
746.00,0.033
746.50,0.040
747.00,0.044
747.50,0.040
748.00,0.040
748.50,0.037
749.00,0.041
749.50,0.040
750.00,0.042
750.50,0.036
751.00,0.036
751.50,0.047
752.00,0.039
752.50,0.043
753.00,0.048
753.50,0.031
754.00,0.046
754.50,0.039
755.00,0.037
755.50,0.034
756.00,0.044
756.50,0.037
757.00,0.033
757.50,0.043
758.00,0.036
758.50,0.033
759.00,0.034
759.50,0.043
760.00,0.044
760.50,0.045
761.00,0.040
761.50,0.040
762.00,0.037
762.50,0.037
763.00,0.044
763.50,0.036
764.00,0.037
764.50,0.035
765.00,0.041
765.50,0.037
766.00,0.037
766.50,0.033
767.00,0.035
767.50,0.034
768.00,0.046
768.50,0.051
769.00,0.036
769.50,0.042
770.00,0.041
770.50,0.046
771.00,0.048
771.50,0.047
772.00,0.042
772.50,0.044
773.00,0.037
773.50,0.036
774.00,0.045
774.50,0.042
775.00,0.036
775.50,0.040
776.00,0.042
776.50,0.036
777.00,0.040
777.50,0.038
778.00,0.039
778.50,0.038
779.00,0.044
779.50,0.030
780.00,0.039
780.50,0.045
781.00,0.035
781.50,0.038
782.00,0.041
782.50,0.033
783.00,0.039
783.50,0.046
784.00,0.038
784.50,0.037
785.00,0.044
785.50,0.040
786.00,0.037
786.50,0.045
787.00,0.035
787.50,0.041
788.00,0.047
788.50,0.040
789.00,0.039
789.50,0.053
790.00,0.040
790.50,0.042
791.00,0.047
791.50,0.041
792.00,0.042
792.50,0.032
793.00,0.043
793.50,0.034
794.00,0.044
794.50,0.033
795.00,0.036
795.50,0.029
796.00,0.039
796.50,0.040
797.00,0.048
797.50,0.026
798.00,0.031
798.50,0.033
799.00,0.039
799.50,0.036
800.00,0.035
800.50,0.033
801.00,0.032
801.50,0.040
802.00,0.030
802.50,0.030
803.00,0.038
803.50,0.038
804.00,0.041
804.50,0.040
805.00,0.023
805.50,0.039
806.00,0.043
806.50,0.038
807.00,0.047
807.50,0.050
808.00,0.027
808.50,0.043
809.00,0.043
809.50,0.036
810.00,0.023
810.50,0.046
811.00,0.044
811.50,0.041
812.00,0.035
812.50,0.030
813.00,0.037
813.50,0.027
814.00,0.036
814.50,0.036
815.00,0.021
815.50,0.030
816.00,0.032
816.50,0.041
817.00,0.033
817.50,0.048
818.00,0.044
818.50,0.021
819.00,0.038
819.50,0.049
820.00,0.040
820.50,0.036
821.00,0.029
821.50,0.040
822.00,0.038
822.50,0.046
823.00,0.040
823.50,0.040
824.00,0.042
824.50,0.034
825.00,0.039
825.50,0.043
826.00,0.038
826.50,0.017
827.00,0.042
827.50,0.032
828.00,0.037
828.50,0.014
829.00,0.046
829.50,0.041
830.00,0.045
830.50,0.026
831.00,0.045
831.50,0.050
832.00,0.048
832.50,0.025
833.00,0.030
833.50,0.041
834.00,0.040
834.50,0.038
835.00,0.037
835.50,0.034
836.00,0.034
836.50,0.036
837.00,0.044
837.50,0.044
838.00,0.059
838.50,0.038
839.00,0.059
839.50,0.037
840.00,0.026
840.50,0.035
841.00,0.042
841.50,0.011
842.00,0.029
842.50,0.035
843.00,0.033
843.50,0.033
844.00,0.028
844.50,0.044
845.00,0.041
845.50,0.019
846.00,0.028
846.50,0.041
847.00,0.040
847.50,0.029
848.00,0.028
848.50,0.041
849.00,0.032
849.50,0.038
850.00,0.045
850.50,0.037
851.00,0.050
851.50,0.039
852.00,0.059
852.50,0.022
853.00,0.048
853.50,0.028
854.00,0.058
854.50,0.051
855.00,0.041
855.50,0.035
856.00,0.041
856.50,0.016
857.00,0.049
857.50,0.042
858.00,0.030
858.50,0.037
859.00,0.031
859.50,0.040
860.00,0.032
860.50,0.040
861.00,0.039
861.50,0.052
862.00,0.025
862.50,0.049
863.00,0.042
863.50,0.036
864.00,0.006
864.50,0.033
865.00,0.014
865.50,0.028
866.00,0.013
866.50,0.022
867.00,0.053
867.50,0.080
868.00,0.031
868.50,0.053
869.00,0.038
869.50,0.013
870.00,0.067
870.50,0.039
871.00,0.045
871.50,0.031
872.00,0.049
872.50,0.006
873.00,0.055
873.50,0.019
874.00,0.024
874.50,0.095
875.00,0.002
875.50,0.055
876.00,0.069
876.50,0.101
877.00,0.087
877.50,0.062
878.00,0.038
878.50,0.058
879.00,0.064
879.50,0.059
880.00,0.071
880.50,0.017
881.00,0.094
881.50,0.044
882.00,0.035
882.50,0.084
883.00,0.083
883.50,0.074
884.00,0.068
884.50,-0.017
885.00,0.057
885.50,-0.001
886.00,-0.050
886.50,0.055
887.00,-0.073
887.50,0.009
888.00,-0.036
888.50,0.008
889.00,0.116
889.50,0.248
890.00,-0.190
890.50,0.070
891.00,-0.135
891.50,-0.027
892.00,-0.016
892.50,-0.160
893.00,0.144
893.50,0.364
894.00,-0.228
894.50,-0.019
895.00,-0.016
895.50,0.262
896.00,0.141
896.50,0.427
897.00,-0.038
897.50,0.174
898.00,-0.357
898.50,0.229
899.00,-0.143
899.50,0.069
900.00,0.694
900.50,0.107
901.00,0.240
901.50,0.008
902.00,-0.044
902.50,0.060
903.00,0.062
903.50,-0.005
904.00,0.089
904.50,-0.005
905.00,0.030
905.50,0.093
906.00,0.075
906.50,-0.065
907.00,-0.001
907.50,-0.000
908.00,0.148
908.50,0.035
909.00,-0.017
909.50,0.133
910.00,-0.064
910.50,0.071
911.00,-0.025
911.50,0.007
912.00,0.016
912.50,0.043
913.00,0.050
913.50,0.067
914.00,0.090
914.50,-0.014
915.00,0.075
915.50,0.018
916.00,0.095
916.50,0.084
917.00,0.060
917.50,0.046
918.00,0.084
918.50,0.034
919.00,0.034
919.50,0.048
920.00,0.018
920.50,0.087
921.00,0.060
921.50,0.023
922.00,0.034
922.50,0.072
923.00,0.086
923.50,0.057
924.00,0.047
924.50,0.060
925.00,0.069
925.50,0.042
926.00,0.051
926.50,0.080
927.00,0.057
927.50,0.013
928.00,0.056
928.50,0.048
929.00,0.043
929.50,0.054
930.00,0.015
930.50,0.060
931.00,0.064
931.50,0.047
932.00,0.036
932.50,0.032
933.00,0.057
933.50,0.104
934.00,0.067
934.50,0.007
935.00,0.076
935.50,0.059
936.00,0.039
936.50,0.057
937.00,0.073
937.50,0.032
938.00,0.059
938.50,0.052
939.00,0.080
939.50,0.088
940.00,0.056
940.50,0.029
941.00,0.024
941.50,0.070
942.00,0.088
942.50,0.039
943.00,0.054
943.50,0.054
944.00,0.009
944.50,0.016
945.00,0.019
945.50,0.061
946.00,0.045
946.50,0.023
947.00,0.027
947.50,0.031
948.00,0.061
948.50,0.111
949.00,0.034
949.50,0.022
950.00,0.057
950.50,0.071
951.00,-0.001
951.50,0.040
952.00,0.063
952.50,0.024
953.00,0.093
953.50,0.052
954.00,0.038
954.50,0.072
955.00,0.082
955.50,0.058
956.00,0.067
956.50,0.044
957.00,0.023
957.50,0.066
958.00,0.061
958.50,0.055
959.00,0.064
959.50,0.055
960.00,0.044
960.50,0.039
961.00,0.048
961.50,0.050
962.00,0.036
962.50,0.025
963.00,0.052
963.50,0.066
964.00,0.043
964.50,0.035
965.00,0.059
965.50,0.057
966.00,0.049
966.50,0.049
967.00,0.052
967.50,0.068
968.00,0.081
968.50,0.058
969.00,0.077
969.50,0.046
970.00,0.051
970.50,0.083
971.00,0.054
971.50,0.097
972.00,0.077
972.50,0.072
973.00,0.033
973.50,0.076
974.00,0.077
974.50,0.074
975.00,0.067
975.50,0.068
976.00,0.078
976.50,0.074
977.00,0.077
977.50,0.075
978.00,0.066
978.50,0.105
979.00,0.087
979.50,0.089
980.00,0.054
980.50,0.095
981.00,0.101
981.50,0.077
982.00,0.055
982.50,0.087
983.00,0.094
983.50,0.077
984.00,0.092
984.50,0.088
985.00,0.096
985.50,0.093
986.00,0.104
986.50,0.112
987.00,0.115
987.50,0.108
988.00,0.135
988.50,0.091
989.00,0.088
989.50,0.115
990.00,0.120
990.50,0.131
991.00,0.128
991.50,0.126
992.00,0.139
992.50,0.138
993.00,0.120
993.50,0.113
994.00,0.180
994.50,0.164
995.00,0.164
995.50,0.161
996.00,0.157
996.50,0.186
997.00,0.193
997.50,0.184
998.00,0.197
998.50,0.212
999.00,0.207
999.50,0.206
1000.00,0.223
1000.50,0.220
1001.00,0.236
1001.50,0.268
1002.00,0.259
1002.50,0.284
1003.00,0.272
1003.50,0.280
1004.00,0.288
1004.50,0.327
1005.00,0.328
1005.50,0.325
1006.00,0.333
1006.50,0.360
1007.00,0.405
1007.50,0.373
1008.00,0.389
1008.50,0.408
1009.00,0.417
1009.50,0.449
1010.00,0.442
1010.50,0.472
1011.00,0.485
1011.50,0.521
1012.00,0.521
1012.50,0.549
1013.00,0.549
1013.50,0.569
1014.00,0.601
1014.50,0.589
1015.00,0.630
1015.50,0.669
1016.00,0.675
1016.50,0.694
1017.00,0.734
1017.50,0.731
1018.00,0.768
1018.50,0.793
1019.00,0.807
1019.50,0.868
1020.00,0.882
1020.50,0.893
1021.00,0.933
1021.50,0.950
1022.00,0.992
1022.50,1.037
1023.00,1.055
1023.50,1.082
1024.00,1.128
1024.50,1.151
1025.00,1.167
1025.50,1.216
1026.00,1.251
1026.50,1.289
1027.00,1.325
1027.50,1.363
1028.00,1.408
1028.50,1.445
1029.00,1.482
1029.50,1.537
1030.00,1.575
1030.50,1.616
1031.00,1.658
1031.50,1.691
1032.00,1.744
1032.50,1.801
1033.00,1.852
1033.50,1.886
1034.00,1.931
1034.50,1.999
1035.00,2.047
1035.50,2.081
1036.00,2.130
1036.50,2.174
1037.00,2.236
1037.50,2.294
1038.00,2.344
1038.50,2.376
1039.00,2.463
1039.50,2.524
1040.00,2.568
1040.50,2.637
1041.00,2.698
1041.50,2.751
1042.00,2.832
1042.50,2.876
1043.00,2.937
1043.50,3.000
1044.00,3.083
1044.50,3.126
1045.00,3.210
1045.50,3.268
1046.00,3.326
1046.50,3.382
1047.00,3.448
1047.50,3.518
1048.00,3.578
1048.50,3.645
1049.00,3.722
1049.50,3.781
1050.00,3.858
1050.50,3.945
1051.00,3.990
1051.50,4.071
1052.00,4.143
1052.50,4.198
1053.00,4.281
1053.50,4.359
1054.00,4.415
1054.50,4.472
1055.00,4.556
1055.50,4.623
1056.00,4.709
1056.50,4.778
1057.00,4.852
1057.50,4.931
1058.00,4.990
1058.50,5.079
1059.00,5.150
1059.50,5.231
1060.00,5.323
1060.50,5.395
1061.00,5.475
1061.50,5.549
1062.00,5.620
1062.50,5.699
1063.00,5.755
1063.50,5.814
1064.00,5.894
1064.50,5.931
1065.00,5.982
1065.50,6.052
1066.00,6.097
1066.50,6.137
1067.00,6.197
1067.50,6.247
1068.00,6.307
1068.50,6.363
1069.00,6.418
1069.50,6.475
1070.00,6.496
1070.50,6.563
1071.00,6.617
1071.50,6.661
1072.00,6.719
1072.50,6.752
1073.00,6.807
1073.50,6.880
1074.00,6.930
1074.50,6.976
1075.00,7.009
1075.50,7.060
1076.00,7.099
1076.50,7.169
1077.00,7.205
1077.50,7.251
1078.00,7.313
1078.50,7.357
1079.00,7.388
1079.50,7.457
1080.00,7.487
1080.50,7.537
1081.00,7.571
1081.50,7.607
1082.00,7.673
1082.50,7.712
1083.00,7.742
1083.50,7.803
1084.00,7.841
1084.50,7.899
1085.00,7.939
1085.50,7.976
1086.00,8.020
1086.50,8.076
1087.00,8.107
1087.50,8.141
1088.00,8.190
1088.50,8.226
1089.00,8.262
1089.50,8.303
1090.00,8.338
1090.50,8.384
1091.00,8.434
1091.50,8.459
1092.00,8.490
1092.50,8.537
1093.00,8.584
1093.50,8.618
1094.00,8.629
1094.50,8.701
1095.00,8.741
1095.50,8.768
1096.00,8.805
1096.50,8.855
1097.00,8.881
1097.50,8.924
1098.00,8.961
1098.50,8.998
1099.00,9.031
1099.50,9.058
1100.00,9.104
1100.50,9.131
1101.00,9.181
1101.50,9.202
1102.00,9.246
1102.50,9.282
1103.00,9.325
1103.50,9.337
1104.00,9.360
1104.50,9.392
1105.00,9.421
1105.50,9.463
1106.00,9.466
1106.50,9.512
1107.00,9.544
1107.50,9.571
1108.00,9.608
1108.50,9.640
1109.00,9.662
1109.50,9.694
1110.00,9.729
1110.50,9.758
1111.00,9.803
1111.50,9.815
1112.00,9.842
1112.50,9.868
1113.00,9.908
1113.50,9.942
1114.00,9.970
1114.50,9.993
1115.00,10.024
1115.50,10.058
1116.00,10.084
1116.50,10.107
1117.00,10.147
1117.50,10.158
1118.00,10.190
1118.50,10.224
1119.00,10.242
1119.50,10.277
1120.00,10.306
1120.50,10.327
1121.00,10.359
1121.50,10.388
1122.00,10.409
1122.50,10.416
1123.00,10.448
1123.50,10.477
1124.00,10.488
1124.50,10.529
1125.00,10.551
1125.50,10.566
1126.00,10.598
1126.50,10.626
1127.00,10.646
1127.50,10.680
1128.00,10.695
1128.50,10.713
1129.00,10.748
1129.50,10.762
1130.00,10.774
1130.50,10.819
1131.00,10.832
1131.50,10.855
1132.00,10.875
1132.50,10.896
1133.00,10.919
1133.50,10.948
1134.00,10.973
1134.50,10.975
1135.00,11.003
1135.50,11.043
1136.00,11.048
1136.50,11.070
1137.00,11.101
1137.50,11.114
1138.00,11.144
1138.50,11.149
1139.00,11.186
1139.50,11.193
1140.00,11.228
1140.50,11.250
1141.00,11.247
1141.50,11.287
1142.00,11.303
1142.50,11.316
1143.00,11.338
1143.50,11.357
1144.00,11.361
1144.50,11.402
1145.00,11.408
1145.50,11.434
1146.00,11.454
1146.50,11.466
1147.00,11.495
1147.50,11.509
1148.00,11.524
1148.50,11.538
1149.00,11.560
1149.50,11.565
1150.00,11.596
1150.50,11.605
1151.00,11.624
1151.50,11.638
1152.00,11.653
1152.50,11.682
1153.00,11.684
1153.50,11.701
1154.00,11.722
1154.50,11.734
1155.00,11.757
1155.50,11.759
1156.00,11.783
1156.50,11.806
1157.00,11.824
1157.50,11.832
1158.00,11.857
1158.50,11.878
1159.00,11.863
1159.50,11.897
1160.00,11.922
1160.50,11.929
1161.00,11.952
1161.50,11.966
1162.00,11.977
1162.50,12.007
1163.00,12.008
1163.50,12.006
1164.00,12.045
1164.50,12.057
1165.00,12.068
1165.50,12.081
1166.00,12.090
1166.50,12.102
1167.00,12.114
1167.50,12.136
1168.00,12.156
1168.50,12.149
1169.00,12.174
1169.50,12.186
1170.00,12.193
1170.50,12.209
1171.00,12.230
1171.50,12.229
1172.00,12.245
1172.50,12.256
1173.00,12.271
1173.50,12.298
1174.00,12.305
1174.50,12.305
1175.00,12.345
1175.50,12.344
1176.00,12.345
1176.50,12.360
1177.00,12.381
1177.50,12.400
1178.00,12.406
1178.50,12.416
1179.00,12.438
1179.50,12.440
1180.00,12.451
1180.50,12.454
1181.00,12.467
1181.50,12.478
1182.00,12.483
1182.50,12.481
1183.00,12.495
1183.50,12.502
1184.00,12.507
1184.50,12.514
1185.00,12.528
1185.50,12.530
1186.00,12.549
1186.50,12.543
1187.00,12.550
1187.50,12.564
1188.00,12.563
1188.50,12.582
1189.00,12.590
1189.50,12.602
1190.00,12.593
1190.50,12.612
1191.00,12.611
1191.50,12.639
1192.00,12.629
1192.50,12.635
1193.00,12.654
1193.50,12.649
1194.00,12.665
1194.50,12.660
1195.00,12.664
1195.50,12.683
1196.00,12.690
1196.50,12.694
1197.00,12.714
1197.50,12.709
1198.00,12.713
1198.50,12.715
1199.00,12.719
1199.50,12.736
1200.00,12.737
1200.50,12.742
1201.00,12.751
1201.50,12.763
1202.00,12.767
1202.50,12.782
1203.00,12.781
1203.50,12.784
1204.00,12.796
1204.50,12.804
1205.00,12.802
1205.50,12.811
1206.00,12.814
1206.50,12.834
1207.00,12.837
1207.50,12.844
1208.00,12.853
1208.50,12.859
1209.00,12.869
1209.50,12.875
1210.00,12.889
1210.50,12.898
1211.00,12.891
1211.50,12.887
1212.00,12.914
1212.50,12.911
1213.00,12.927
1213.50,12.924
1214.00,12.932
1214.50,12.948
1215.00,12.951
1215.50,12.955
1216.00,12.960
1216.50,12.973
1217.00,12.973
1217.50,12.988
1218.00,13.001
1218.50,12.998
1219.00,13.005
1219.50,13.010
1220.00,13.014
1220.50,13.040
1221.00,13.030
1221.50,13.028
1222.00,13.041
1222.50,13.052
1223.00,13.065
1223.50,13.064
1224.00,13.074
1224.50,13.081
1225.00,13.078
1225.50,13.083
1226.00,13.107
1226.50,13.109
1227.00,13.122
1227.50,13.115
1228.00,13.114
1228.50,13.137
1229.00,13.143
1229.50,13.144
1230.00,13.149
1230.50,13.156
1231.00,13.161
1231.50,13.174
1232.00,13.168
1232.50,13.189
1233.00,13.189
1233.50,13.200
1234.00,13.196
1234.50,13.214
1235.00,13.218
1235.50,13.226
1236.00,13.226
1236.50,13.233
1237.00,13.251
1237.50,13.260
1238.00,13.253
1238.50,13.262
1239.00,13.271
1239.50,13.285
1240.00,13.282
1240.50,13.287
1241.00,13.306
1241.50,13.315
1242.00,13.329
1242.50,13.326
1243.00,13.334
1243.50,13.330
1244.00,13.342
1244.50,13.360
1245.00,13.353
1245.50,13.361
1246.00,13.365
1246.50,13.383
1247.00,13.374
1247.50,13.390
1248.00,13.402
1248.50,13.411
1249.00,13.406
1249.50,13.405
1250.00,13.424
1250.50,13.427
1251.00,13.432
1251.50,13.440
1252.00,13.450
1252.50,13.454
1253.00,13.464
1253.50,13.474
1254.00,13.472
1254.50,13.488
1255.00,13.501
1255.50,13.492
1256.00,13.509
1256.50,13.509
1257.00,13.511
1257.50,13.530
1258.00,13.525
1258.50,13.529
1259.00,13.541
1259.50,13.552
1260.00,13.550
1260.50,13.561
1261.00,13.572
1261.50,13.583
1262.00,13.601
1262.50,13.589
1263.00,13.591
1263.50,13.608
1264.00,13.602
1264.50,13.607
1265.00,13.629
1265.50,13.630
1266.00,13.635
1266.50,13.650
1267.00,13.642
1267.50,13.659
1268.00,13.663
1268.50,13.668
1269.00,13.686
1269.50,13.694
1270.00,13.690
1270.50,13.696
1271.00,13.702
1271.50,13.704
1272.00,13.718
1272.50,13.740
1273.00,13.731
1273.50,13.739
1274.00,13.748
1274.50,13.759
1275.00,13.762
1275.50,13.746
1276.00,13.769
1276.50,13.763
1277.00,13.784
1277.50,13.782
1278.00,13.791
1278.50,13.799
1279.00,13.801
1279.50,13.799
1280.00,13.812
1280.50,13.821
1281.00,13.821
1281.50,13.832
1282.00,13.837
1282.50,13.844
1283.00,13.864
1283.50,13.856
1284.00,13.863
1284.50,13.871
1285.00,13.870
1285.50,13.883
1286.00,13.885
1286.50,13.892
1287.00,13.895
1287.50,13.904
1288.00,13.920
1288.50,13.915
1289.00,13.937
1289.50,13.940
1290.00,13.943
1290.50,13.948
1291.00,13.952
1291.50,13.971
1292.00,13.960
1292.50,13.975
1293.00,13.982
1293.50,13.980
1294.00,14.000
1294.50,14.005
1295.00,14.015
1295.50,14.009
1296.00,14.018
1296.50,14.023
1297.00,14.032
1297.50,14.043
1298.00,14.055
1298.50,14.066
1299.00,14.065
1299.50,14.065
1300.00,14.084
1300.50,14.077
1301.00,14.091
1301.50,14.097
1302.00,14.109
1302.50,14.115
1303.00,14.121
1303.50,14.124
1304.00,14.131
1304.50,14.142
1305.00,14.152
1305.50,14.148
1306.00,14.155
1306.50,14.165
1307.00,14.176
1307.50,14.173
1308.00,14.176
1308.50,14.188
1309.00,14.193
1309.50,14.199
1310.00,14.201
1310.50,14.206
1311.00,14.220
1311.50,14.221
1312.00,14.232
1312.50,14.237
1313.00,14.236
1313.50,14.246
1314.00,14.261
1314.50,14.261
1315.00,14.244
1315.50,14.279
1316.00,14.276
1316.50,14.280
1317.00,14.287
1317.50,14.293
1318.00,14.300
1318.50,14.324
1319.00,14.313
1319.50,14.322
1320.00,14.338
1320.50,14.322
1321.00,14.335
1321.50,14.335
1322.00,14.343
1322.50,14.336
1323.00,14.350
1323.50,14.373
1324.00,14.378
1324.50,14.371
1325.00,14.386
1325.50,14.405
1326.00,14.405
1326.50,14.407
1327.00,14.418
1327.50,14.417
1328.00,14.451
1328.50,14.438
1329.00,14.439
1329.50,14.466
1330.00,14.467
1330.50,14.470
1331.00,14.481
1331.50,14.487
1332.00,14.492
1332.50,14.505
1333.00,14.503
1333.50,14.506
1334.00,14.533
1334.50,14.530
1335.00,14.524
1335.50,14.541
1336.00,14.539
1336.50,14.549
1337.00,14.568
1337.50,14.574
1338.00,14.571
1338.50,14.580
1339.00,14.587
1339.50,14.605
1340.00,14.602
1340.50,14.606
1341.00,14.612
1341.50,14.620
1342.00,14.620
1342.50,14.632
1343.00,14.638
1343.50,14.641
1344.00,14.655
1344.50,14.665
1345.00,14.667
1345.50,14.661
1346.00,14.661
1346.50,14.673
1347.00,14.693
1347.50,14.692
1348.00,14.710
1348.50,14.707
1349.00,14.709
1349.50,14.723
1350.00,14.702
1350.50,14.718
1351.00,14.740
1351.50,14.713
1352.00,14.730
1352.50,14.776
1353.00,14.759
1353.50,14.759
1354.00,14.781
1354.50,14.753
1355.00,14.818
1355.50,14.742
1356.00,14.759
1356.50,14.869
1357.00,14.800
1357.50,14.783
1358.00,14.859
1358.50,14.796
1359.00,14.867
1359.50,14.822
1360.00,14.758
1360.50,14.859
1361.00,14.915
1361.50,14.858
1362.00,14.894
1362.50,14.911
1363.00,14.898
1363.50,14.861
1364.00,15.034
1364.50,14.816
1365.00,14.936
1365.50,14.931
1366.00,14.929
1366.50,14.898
1367.00,14.997
1367.50,14.863
1368.00,15.031
1368.50,14.928
1369.00,14.977
1369.50,14.962
1370.00,14.911
1370.50,15.018
1371.00,14.965
1371.50,15.065
1372.00,14.966
1372.50,15.045
1373.00,15.010
1373.50,15.029
1374.00,15.019
1374.50,15.027
1375.00,15.051
1375.50,15.047
1376.00,15.020
1376.50,15.088
1377.00,15.040
1377.50,15.035
1378.00,15.099
1378.50,15.039
1379.00,15.078
1379.50,15.041
1380.00,15.126
1380.50,15.021
1381.00,15.080
1381.50,15.060
1382.00,15.174
1382.50,15.010
1383.00,15.126
1383.50,15.198
1384.00,15.070
1384.50,15.228
1385.00,15.049
1385.50,15.176
1386.00,15.192
1386.50,15.172
1387.00,15.153
1387.50,15.301
1388.00,15.159
1388.50,15.212
1389.00,15.194
1389.50,15.238
1390.00,15.194
1390.50,15.214
1391.00,15.217
1391.50,15.180
1392.00,15.457
1392.50,15.194
1393.00,15.271
1393.50,15.247
1394.00,15.196
1394.50,15.340
1395.00,15.288
1395.50,15.174
1396.00,15.490
1396.50,15.249
1397.00,15.312
1397.50,15.313
1398.00,15.325
1398.50,15.282
1399.00,15.405
1399.50,15.307
1400.00,15.328
1400.50,15.292
1401.00,15.406
1401.50,15.335
1402.00,15.352
1402.50,15.388
1403.00,15.363
1403.50,15.371
1404.00,15.304
1404.50,15.533
1405.00,15.283
1405.50,15.409
1406.00,15.389
1406.50,15.442
1407.00,15.443
1407.50,15.397
1408.00,15.434
1408.50,15.428
1409.00,15.485
1409.50,15.447
1410.00,15.461
1410.50,15.453
1411.00,15.468
1411.50,15.479
1412.00,15.513
1412.50,15.464
1413.00,15.479
1413.50,15.520
1414.00,15.514
1414.50,15.481
1415.00,15.530
1415.50,15.502
1416.00,15.518
1416.50,15.525
1417.00,15.550
1417.50,15.517
1418.00,15.539
1418.50,15.592
1419.00,15.553
1419.50,15.564
1420.00,15.564
1420.50,15.589
1421.00,15.589
1421.50,15.575
1422.00,15.606
1422.50,15.606
1423.00,15.598
1423.50,15.637
1424.00,15.608
1424.50,15.633
1425.00,15.642
1425.50,15.637
1426.00,15.647
1426.50,15.662
1427.00,15.667
1427.50,15.692
1428.00,15.672
1428.50,15.701
1429.00,15.704
1429.50,15.697
1430.00,15.693
1430.50,15.722
1431.00,15.723
1431.50,15.717
1432.00,15.761
1432.50,15.725
1433.00,15.740
1433.50,15.734
1434.00,15.752
1434.50,15.758
1435.00,15.771
1435.50,15.780
1436.00,15.793
1436.50,15.787
1437.00,15.810
1437.50,15.828
1438.00,15.800
1438.50,15.813
1439.00,15.842
1439.50,15.824
1440.00,15.830
1440.50,15.836
1441.00,15.870
1441.50,15.849
1442.00,15.858
1442.50,15.883
1443.00,15.857
1443.50,15.892
1444.00,15.885
1444.50,15.868
1445.00,15.900
1445.50,15.921
1446.00,15.881
1446.50,15.914
1447.00,15.920
1447.50,15.939
1448.00,15.932
1448.50,15.928
1449.00,15.915
1449.50,15.940
1450.00,15.969
1450.50,15.959
1451.00,15.965
1451.50,15.972
1452.00,15.981
1452.50,15.983
1453.00,15.979
1453.50,15.983
1454.00,16.015
1454.50,16.003
1455.00,16.038
1455.50,16.011
1456.00,16.036
1456.50,16.039
1457.00,16.042
1457.50,16.038
1458.00,16.042
1458.50,16.067
1459.00,16.067
1459.50,16.067
1460.00,16.092
1460.50,16.074
1461.00,16.087
1461.50,16.093
1462.00,16.105
1462.50,16.106
1463.00,16.117
1463.50,16.113
1464.00,16.132
1464.50,16.137
1465.00,16.164
1465.50,16.141
1466.00,16.165
1466.50,16.169
1467.00,16.166
1467.50,16.172
1468.00,16.195
1468.50,16.187
1469.00,16.173
1469.50,16.236
1470.00,16.192
1470.50,16.232
1471.00,16.243
1471.50,16.220
1472.00,16.238
1472.50,16.261
1473.00,16.242
1473.50,16.261
1474.00,16.274
1474.50,16.265
1475.00,16.284
1475.50,16.294
1476.00,16.287
1476.50,16.301
1477.00,16.316
1477.50,16.315
1478.00,16.320
1478.50,16.314
1479.00,16.333
1479.50,16.352
1480.00,16.344
1480.50,16.354
1481.00,16.332
1481.50,16.369
1482.00,16.359
1482.50,16.368
1483.00,16.386
1483.50,16.384
1484.00,16.395
1484.50,16.400
1485.00,16.417
1485.50,16.412
1486.00,16.416
1486.50,16.422
1487.00,16.413
1487.50,16.440
1488.00,16.451
1488.50,16.438
1489.00,16.458
1489.50,16.448
1490.00,16.454
1490.50,16.479
1491.00,16.477
1491.50,16.476
1492.00,16.493
1492.50,16.494
1493.00,16.504
1493.50,16.517
1494.00,16.516
1494.50,16.516
1495.00,16.511
1495.50,16.527
1496.00,16.542
1496.50,16.538
1497.00,16.546
1497.50,16.566
1498.00,16.562
1498.50,16.570
1499.00,16.583
1499.50,16.582
1500.00,16.609
1500.50,16.594
1501.00,16.597
1501.50,16.617
1502.00,16.625
1502.50,16.626
1503.00,16.637
1503.50,16.626
1504.00,16.643
1504.50,16.658
1505.00,16.663
1505.50,16.673
1506.00,16.677
1506.50,16.684
1507.00,16.694
1507.50,16.705
1508.00,16.695
1508.50,16.729
1509.00,16.719
1509.50,16.723
1510.00,16.735
1510.50,16.740
1511.00,16.748
1511.50,16.749
1512.00,16.761
1512.50,16.770
1513.00,16.767
1513.50,16.782
1514.00,16.810
1514.50,16.786
1515.00,16.793
1515.50,16.811
1516.00,16.794
1516.50,16.827
1517.00,16.838
1517.50,16.830
1518.00,16.828
1518.50,16.838
1519.00,16.845
1519.50,16.867
1520.00,16.859
1520.50,16.852
1521.00,16.877
1521.50,16.880
1522.00,16.874
1522.50,16.894
1523.00,16.892
1523.50,16.890
1524.00,16.898
1524.50,16.911
1525.00,16.934
1525.50,16.931
1526.00,16.921
1526.50,16.955
1527.00,16.944
1527.50,16.939
1528.00,16.965
1528.50,16.962
1529.00,16.961
1529.50,16.969
1530.00,16.975
1530.50,16.980
1531.00,16.985
1531.50,16.990
1532.00,16.996
1532.50,16.995
1533.00,17.008
1533.50,17.022
1534.00,17.022
1534.50,17.040
1535.00,17.035
1535.50,17.028
1536.00,17.037
1536.50,17.039
1537.00,17.055
1537.50,17.051
1538.00,17.074
1538.50,17.080
1539.00,17.110
1539.50,17.105
1540.00,17.094
1540.50,17.098
1541.00,17.102
1541.50,17.122
1542.00,17.116
1542.50,17.136
1543.00,17.124
1543.50,17.145
1544.00,17.151
1544.50,17.149
1545.00,17.136
1545.50,17.163
1546.00,17.169
1546.50,17.189
1547.00,17.202
1547.50,17.188
1548.00,17.194
1548.50,17.229
1549.00,17.221
1549.50,17.208
1550.00,17.217
1550.50,17.224
1551.00,17.230
1551.50,17.255
1552.00,17.253
1552.50,17.257
1553.00,17.268
1553.50,17.259
1554.00,17.278
1554.50,17.283
1555.00,17.276
1555.50,17.288
1556.00,17.291
1556.50,17.298
1557.00,17.311
1557.50,17.312
1558.00,17.324
1558.50,17.317
1559.00,17.331
1559.50,17.359
1560.00,17.335
1560.50,17.342
1561.00,17.350
1561.50,17.370
1562.00,17.367
1562.50,17.364
1563.00,17.361
1563.50,17.371
1564.00,17.381
1564.50,17.390
1565.00,17.411
1565.50,17.413
1566.00,17.410
1566.50,17.423
1567.00,17.420
1567.50,17.419
1568.00,17.443
1568.50,17.429
1569.00,17.444
1569.50,17.469
1570.00,17.454
1570.50,17.445
1571.00,17.461
1571.50,17.474
1572.00,17.476
1572.50,17.479
1573.00,17.481
1573.50,17.476
1574.00,17.478
1574.50,17.506
1575.00,17.526
1575.50,17.505
1576.00,17.510
1576.50,17.533
1577.00,17.530
1577.50,17.539
1578.00,17.521
1578.50,17.529
1579.00,17.547
1579.50,17.557
1580.00,17.552
1580.50,17.585
1581.00,17.575
1581.50,17.570
1582.00,17.595
1582.50,17.604
1583.00,17.599
1583.50,17.600
1584.00,17.616
1584.50,17.616
1585.00,17.631
1585.50,17.641
1586.00,17.626
1586.50,17.666
1587.00,17.656
1587.50,17.642
1588.00,17.666
1588.50,17.674
1589.00,17.694
1589.50,17.707
1590.00,17.714
1590.50,17.709
1591.00,17.730
1591.50,17.706
1592.00,17.730
1592.50,17.719
1593.00,17.739
1593.50,17.731
1594.00,17.725
1594.50,17.750
1595.00,17.759
1595.50,17.765
1596.00,17.772
1596.50,17.758
1597.00,17.760
1597.50,17.764
1598.00,17.762
1598.50,17.784
1599.00,17.807
1599.50,17.785
1600.00,17.802
